#Acq. time (s)=	3
#Accumulations=	10
#Range (cm-¹)=	100...3500
#Windows=	6
#Autofocus=	Off
#AutoExposure=	Off
#Spike filter=	Multiple accum.
#Delay time (s)=	0
#Binning=	1
#Readout mode=	Signal
#DeNoise=	Off
#ICS correction=	Off
#Dark correction=	Off
#Inst. Process=	Off
#Instrument=	ARAMIS
#Detector=	Andor CCD
#Objective=	x50 SLWD
#Grating=	1800
#Filter=	100%
#Laser (nm)=	532
#Slit=	150
#Hole=	400
#Location=	Micro
#Range=	VIS
#StageXY=	Marzhauser
#StageZ=	Marzhauser
#X (µm)=	-7075
#Y (µm)=	-11616.5
#Z (µm)=	507.4
#Project=	
#Sample=	
#Site=	
#Title=	Oxidised MWCNTs 30_2
#Remark=	
#Date=	06.03.2020 12:28
#Acquired=	06.03.2020 12:28:51
100.291	252.222
101.183	254.108
102.074	244.994
102.968	255.436
103.86	259.878
104.751	268.986
105.643	258.983
106.536	258.758
107.427	259.867
108.318	257.531
109.209	262.417
110.102	260.525
110.993	274.522
111.884	270.742
112.775	273.072
113.665	285.403
114.556	280.4
115.446	283.064
116.337	278.728
117.227	274.725
118.119	265.389
119.009	258.053
119.899	256.272
120.789	263.603
121.679	253.711
122.567	253.708
123.456	243.483
124.346	240.814
125.235	240.144
126.125	246.253
127.014	252.694
127.903	257.803
128.793	248.133
129.682	248.575
130.569	252.794
131.457	271.125
132.346	269.455
133.235	266.897
134.122	240.339
135.01	236.447
135.899	221.778
136.787	235.108
137.673	227.105
138.561	223.88
139.45	206.878
140.336	209.542
141.224	211.317
142.109	203.536
142.997	198.978
143.885	203.753
144.77	210.417
145.658	211.192
146.543	206.411
147.431	203.63
148.316	197.961
149.203	204.958
150.088	204.955
150.975	204.064
151.86	209.839
152.745	205.503
153.632	212.278
154.516	205.275
155.401	197.383
156.287	198.603
157.172	201.489
158.056	203.264
158.942	199.928
159.826	201.814
160.71	207.922
161.594	201.697
162.48	200.139
163.364	192.025
164.247	198.578
165.131	187.797
166.015	190.239
166.898	191.569
167.783	197.122
168.667	199.008
169.55	203.672
170.433	195.558
171.316	197.333
172.199	192.108
173.082	201.883
173.964	203.547
174.847	195.989
175.73	193.319
176.612	194.761
177.495	194.647
178.377	191.533
179.257	189.53
180.139	187.639
181.021	186.525
181.903	191.411
182.785	192.853
183.667	192.961
184.549	192.514
185.428	192.622
186.31	191.73
187.191	193.283
188.073	193.28
188.952	187.5
189.833	185.719
190.714	187.716
191.593	193.491
192.474	185.155
193.355	184.153
194.234	186.816
195.115	186.48
195.993	188.255
196.874	186.808
197.752	185.139
198.633	188.58
199.511	188.578
200.391	189.686
201.269	191.016
202.149	182.903
203.027	181.455
203.907	182.675
204.785	182.116
205.665	191.003
206.542	187.555
207.42	189.33
208.299	188.105
209.176	184.325
210.054	181.1
210.933	182.764
211.81	187.539
212.687	178.314
213.564	183.978
214.441	180.641
215.319	191.083
216.196	184.858
217.073	183.966
217.949	177.741
218.826	184.516
219.702	183.069
220.58	187.955
221.456	177.841
222.332	185.061
223.208	187.169
224.084	181.833
224.96	185.608
225.836	185.383
226.711	185.602
227.587	183.711
228.462	187.597
229.338	180.261
230.213	180.591
231.086	187.589
231.962	189.697
232.837	184.805
233.712	189.358
234.586	186.244
235.461	189.575
236.334	185.016
237.209	186.236
238.083	190.455
238.958	192.119
239.83	189.339
240.704	183.891
241.579	181
242.453	192.775
243.325	181.994
244.199	186.325
245.071	182.989
245.944	189.764
246.818	190.094
247.69	184.647
248.563	188.2
249.435	190.53
250.308	181.083
251.179	196.525
252.053	192.189
252.924	180.852
253.797	193.627
254.668	183.847
255.541	185.511
256.411	186.841
257.282	187.061
258.155	190.502
259.025	184.611
259.896	184.719
260.768	182.605
261.638	189.047
262.509	184.822
263.381	186.819
264.251	193.927
265.121	183.036
265.991	184.255
266.862	184.03
267.732	186.916
268.602	194.358
269.471	193.244
270.341	191.686
271.21	190.238
272.079	187.569
272.949	184.122
273.818	187.675
274.689	187.783
275.558	191.113
276.427	182.111
277.295	193.775
278.162	183.883
279.031	195.769
279.899	191.211
280.768	179.763
281.636	188.872
282.504	182.536
283.373	181.088
284.241	175.975
285.109	188.194
285.975	181.302
286.843	190.411
287.71	188.075
288.578	188.627
289.446	187.736
290.311	190.4
291.179	183.508
292.046	187.505
292.911	183.502
293.779	186.722
294.646	181.275
295.511	184.605
296.378	185.602
297.243	176.933
298.11	174.597
298.976	180.927
299.841	181.258
300.707	179.366
301.572	174.808
302.438	180.583
303.303	185.802
304.169	179.355
305.033	171.019
305.897	175.238
306.763	182.013
307.627	176.9
308.493	179.452
309.356	180.783
310.22	172.891
311.086	176.222
311.949	183.33
312.813	174.994
313.676	174.991
314.541	173.766
315.404	182.43
316.267	173.761
317.13	179.647
317.993	178.755
318.858	173.086
319.721	174.416
320.583	176.636
321.446	170.744
322.309	170.408
323.171	177.183
324.033	166.847
324.896	167.955
325.758	167.952
326.62	170.394
327.482	168.947
328.344	170.277
329.206	168.274
330.067	172.049
330.929	175.047
331.791	171.711
332.652	165.263
333.514	165.816
334.373	167.591
335.234	174.033
336.095	168.697
336.957	166.583
337.818	170.58
338.676	170.244
339.537	163.019
340.398	169.127
341.257	156.68
342.117	170.788
342.978	168.119
343.836	162.783
344.697	168.224
345.557	168.333
346.415	171.886
347.275	162.216
348.133	158.436
348.993	161.766
349.853	164.652
350.711	164.316
351.571	165.536
352.428	159.866
353.286	161.641
354.146	164.416
355.003	164.191
355.862	162.744
356.719	161.963
357.577	160.849
358.436	160.958
359.293	164.733
360.15	164.063
361.008	160.616
361.865	161.058
362.722	164.944
363.578	158.274
364.437	163.383
365.293	161.824
366.15	153.266
367.006	155.263
367.862	163.705
368.72	155.702
369.576	158.588
370.432	160.363
371.288	162.249
372.144	156.358
373	157.688
373.855	161.908
374.711	161.572
375.566	162.791
376.422	155.788
377.277	159.008
378.132	162.449
378.987	160.78
379.842	159.666
380.697	165.108
381.55	163.994
382.405	163.991
383.26	155.21
384.114	169.43
384.969	159.538
385.823	159.424
386.676	159.755
387.53	158.53
388.384	165.416
389.236	158.08
390.091	158.744
390.945	161.297
391.798	156.183
392.65	165.624
393.504	164.399
394.356	158.285
395.209	160.727
396.063	155.502
396.914	153.61
397.768	163.163
398.619	155.938
399.472	165.713
400.323	162.155
401.176	158.596
402.027	164.371
402.878	158.813
403.731	159.366
404.582	165.03
405.434	162.583
406.285	157.58
407.135	160.577
407.988	160.796
408.838	156.46
409.688	164.235
410.538	157.01
411.391	162.674
412.241	166.449
413.091	167.891
413.94	158.999
414.79	163.441
415.642	167.994
416.491	165.88
417.341	167.21
418.19	159.763
419.04	163.427
419.889	162.535
420.738	168.533
421.587	160.308
422.436	167.083
423.285	166.08
424.134	165.744
424.983	167.408
425.832	160.738
426.68	164.513
427.529	165.844
428.378	158.396
429.226	161.283
430.074	162.946
430.92	170.388
431.769	159.941
432.617	162.605
433.465	163.269
434.311	164.266
435.159	168.152
436.006	167.149
436.854	160.702
437.7	166.144
438.547	167.919
439.395	166.805
440.24	172.691
441.087	156.244
441.935	163.908
442.78	163.016
443.627	171.124
444.472	161.232
445.319	165.23
446.163	163.005
447.01	161.335
447.855	163.11
448.702	167.441
449.546	161.438
450.392	159.546
451.237	162.988
452.081	160.763
452.927	162.982
453.771	169.313
454.615	161.088
455.461	164.53
456.305	165.082
457.149	166.413
457.993	155.077
458.838	161.519
459.682	162.849
460.525	160.624
461.369	157.288
462.212	161.396
463.057	159.949
463.901	163.28
464.744	158.277
465.587	163.052
466.43	160.938
467.273	148.38
468.115	156.044
468.958	156.596
469.801	160.816
470.643	161.702
471.486	159.032
472.328	162.696
473.17	147.36
474.013	161.691
474.855	158.132
475.697	160.352
476.537	162.349
477.379	161.68
478.221	158.677
479.062	154.896
479.904	155.449
480.744	155.669
481.585	155.11
482.427	156.774
483.268	155.994
484.107	152.324
484.948	156.21
485.79	156.874
486.629	151.093
487.47	165.757
488.309	161.421
489.149	153.53
489.99	156.305
490.829	155.857
491.669	155.521
492.508	154.63
493.348	155.627
494.187	153.068
495.027	151.288
495.865	152.618
496.703	153.393
497.543	150.835
498.381	153.388
499.221	147.052
500.059	152.605
500.897	156.713
501.736	149.599
502.574	147.707
503.412	153.038
504.249	152.146
505.088	150.032
505.926	150.918
506.763	147.916
507.6	150.357
508.437	146.466
509.274	151.907
510.113	150.46
510.95	150.791
511.786	146.788
512.623	148.341
513.46	148.893
514.296	150.224
515.133	150.11
515.969	151.552
516.805	149.216
517.641	152.546
518.477	148.432
519.313	151.985
520.149	145.205
520.983	147.646
521.819	151.977
522.655	150.196
523.49	148.416
524.326	151.079
525.161	150.966
525.995	156.852
526.83	147.849
527.666	155.18
528.501	151.177
529.334	147.73
530.169	154.616
531.004	156.391
531.837	157.054
532.672	163.163
533.504	153.938
534.339	146.602
535.173	155.599
536.006	153.263
536.84	155.816
537.673	157.257
538.507	155.477
539.339	157.585
540.173	157.804
541.005	157.579
541.839	159.243
542.671	159.352
543.503	162.904
544.337	155.346
545.168	162.566
546	160.229
546.833	161.116
547.665	164.891
548.496	162.221
549.327	164.885
550.161	168.216
550.992	162.768
551.823	160.21
552.654	161.763
553.485	167.204
554.317	162.535
555.148	163.643
555.979	163.085
556.809	159.082
557.64	160.191
558.47	163.299
559.301	161.407
560.131	162.404
560.961	161.179
561.791	160.399
562.621	161.618
563.451	154.393
564.281	163.057
565.111	157.277
565.941	160.052
566.768	158.827
567.598	160.379
568.428	157.821
569.257	159.152
570.086	158.149
570.914	164.813
571.743	165.588
572.572	157.918
573.401	157.36
574.228	161.024
575.057	160.465
575.886	158.685
576.713	159.015
577.541	160.235
578.37	156.232
579.196	158.34
580.025	153.893
580.851	156.224
581.68	157.443
582.506	160.218
583.334	157.215
584.16	160.435
584.988	153.099
585.814	153.54
586.642	158.427
587.468	164.868
588.293	156.088
589.121	151.418
589.946	153.193
590.772	157.524
591.599	157.077
592.425	151.963
593.25	156.627
594.075	153.402
594.902	154.51
595.727	154.729
596.552	154.615
597.377	153.39
598.202	150.165
599.026	151.607
599.853	153.715
600.678	155.268
601.502	161.71
602.327	153.707
603.151	149.371
603.975	151.257
604.799	149.365
605.624	149.252
606.448	153.249
607.272	148.69
608.096	151.132
608.919	151.907
609.741	146.571
610.565	146.124
611.388	151.232
612.212	147.896
613.035	148.227
613.859	143.002
614.68	152.554
615.503	146.996
616.326	143.66
617.149	138.657
617.97	147.432
618.793	143.874
619.616	141.315
620.437	148.979
621.26	145.532
622.08	146.307
622.903	143.86
623.725	151.524
624.546	148.965
625.368	143.629
626.188	146.738
627.01	144.957
627.831	148.065
628.653	145.396
629.473	143.726
630.292	144.168
631.114	142.499
631.934	145.385
632.756	150.16
633.575	143.935
634.395	144.488
635.216	148.04
636.035	141.593
636.855	144.368
637.674	144.81
638.495	142.251
639.314	148.804
640.133	141.135
640.952	138.132
641.771	137.907
642.59	134.015
643.408	143.235
644.229	140.343
645.047	140.229
645.866	133.115
646.684	137.113
647.503	138.665
648.321	137.885
649.139	135.66
649.957	140.546
650.775	142.876
651.591	140.429
652.409	135.204
653.227	136.646
654.045	139.865
654.862	135.751
655.68	136.304
656.497	135.968
657.313	137.521
658.13	140.296
658.947	132.849
659.765	134.957
660.58	131.732
661.397	140.507
662.214	136.393
663.029	138.501
663.846	135.943
664.662	134.496
665.477	130.049
666.294	137.601
667.108	133.376
667.925	129.04
668.739	133.149
669.555	130.368
670.37	133.143
671.186	133.029
672	130.471
672.816	138.357
673.63	137.799
674.444	130.351
675.26	133.793
676.073	128.346
676.887	135.565
677.703	125.785
678.516	131.226
679.33	131.335
680.145	131.887
680.958	128.662
681.772	128.104
682.585	126.657
683.398	125.321
684.213	122.318
685.026	129.871
685.839	129.535
686.651	125.087
687.464	127.529
688.277	126.193
689.089	124.857
689.902	126.299
690.714	127.74
691.527	132.293
692.339	125.624
693.151	130.176
693.963	128.396
694.775	122.504
695.587	128.946
696.399	122.499
697.209	123.496
698.021	126.382
698.833	118.379
699.644	121.043
700.456	124.818
701.265	124.926
702.077	126.59
702.888	131.032
703.697	119.362
704.508	124.804
705.319	121.912
706.129	121.798
706.939	124.351
707.75	121.348
708.559	122.679
709.37	119.454
710.179	119.673
710.989	125.893
711.798	122.668
712.608	119.665
713.417	124.44
714.227	123.104
715.035	123.879
715.843	119.765
716.654	122.096
717.462	120.871
718.269	120.646
719.079	123.532
719.887	121.64
720.695	117.193
721.505	123.635
722.312	124.298
723.12	126.296
723.927	115.404
724.737	120.957
725.544	119.843
726.351	125.173
727.158	120.837
727.965	118.612
728.772	122.054
729.579	116.051
730.386	114.048
731.193	118.268
732	123.265
732.806	121.485
733.613	119.371
734.419	119.035
735.226	118.143
736.032	115.918
736.839	117.36
737.645	117.357
738.451	122.687
739.257	121.907
740.061	115.126
740.867	114.679
741.673	117.232
742.479	115.673
743.282	116.782
744.088	112.112
744.894	122.332
745.699	124.662
746.503	116.326
747.308	112.99
748.111	113.654
748.917	117.318
749.722	116.648
750.525	115.312
751.33	118.532
752.133	124.084
752.938	117.193
753.74	118.412
754.545	118.521
755.348	114.962
756.152	121.737
756.955	114.179
757.757	122.287
758.562	116.396
759.364	114.837
760.166	117.057
760.97	115.832
761.773	119.162
762.575	115.159
763.378	119.379
764.18	114.598
764.982	119.373
765.784	123.148
766.586	121.146
767.387	122.365
768.191	116.584
768.992	121.248
769.793	118.246
770.595	119.465
771.396	115.907
772.197	115.682
772.998	112.568
773.799	121.676
774.6	114.562
775.401	118.782
776.202	116.001
777.003	115.221
777.803	122.662
778.602	119.548
779.402	117.323
780.203	116.432
781.003	119.984
781.804	108.648
782.604	111.423
783.402	117.643
784.202	117.307
785.002	118.859
785.8	116.745
786.6	124.854
787.4	114.962
788.198	114.515
788.997	118.734
789.797	116.509
790.594	120.729
791.394	111.948
792.191	119.945
792.991	116.054
793.788	116.051
794.587	120.715
795.384	117.934
796.183	114.043
796.98	117.818
797.779	117.482
798.576	114.812
799.373	115.476
800.171	117.029
800.968	111.804
801.765	117.69
802.563	111.132
803.359	111.129
804.156	117.57
804.952	116.79
805.75	110.12
806.546	118.34
807.342	116.004
808.138	114.445
808.934	109.887
809.73	115.995
810.526	115.882
811.322	117.657
812.117	114.432
812.913	119.762
813.708	117.426
814.504	116.09
815.299	116.532
816.095	111.751
816.89	117.082
817.685	109.857
818.48	115.52
819.275	111.629
820.07	115.293
820.865	112.734
821.658	115.954
822.452	110.951
823.247	109.393
824.042	114.279
824.834	111.943
825.629	114.606
826.423	107.826
827.217	107.49
828.01	112.043
828.804	111.04
829.596	109.815
830.39	110.479
831.184	113.476
831.976	111.695
832.77	108.248
833.561	111.023
834.355	109.243
835.147	113.018
835.94	112.237
836.732	112.234
837.523	110.231
838.317	109.673
839.108	110.781
839.899	110.779
840.692	108.887
841.483	112.329
842.274	107.77
843.067	111.768
843.858	116.765
844.649	112.318
845.44	112.759
846.232	114.868
847.023	108.309
847.813	113.751
848.604	112.415
849.394	113.412
850.184	113.854
850.975	109.073
851.765	103.181
852.555	112.512
853.345	112.065
854.135	113.84
854.925	108.948
855.715	112.945
856.504	112.498
857.294	113.051
858.084	107.604
858.873	113.268
859.663	108.154
860.45	111.151
861.24	113.593
862.029	114.59
862.818	115.254
863.607	110.806
864.394	106.137
865.183	109.69
865.972	106.798
866.759	106.998
867.548	104.782
868.337	106.661
869.123	105.647
869.912	104.992
870.698	107.572
871.487	110.606
872.273	106.661
873.062	106.532
873.848	108.975
874.636	107.608
875.422	107.852
876.21	103.428
876.996	106.239
877.784	112.075
878.57	108.397
879.356	108.316
880.143	114.371
880.929	109.18
881.715	103.892
882.5	107.674
883.287	104.956
884.073	112.173
884.858	108.623
885.643	108.373
886.429	104.971
887.216	110.146
888.001	108.964
888.786	106.066
889.57	106.837
890.355	109.569
891.14	107.167
891.925	106.141
892.709	108.78
893.494	108.183
894.278	106.31
895.063	106.102
895.847	110.157
896.631	108.901
897.416	106.471
898.198	109.381
898.982	110.768
899.766	108.005
900.55	109.338
901.334	110.307
902.115	113.419
902.899	110.748
903.683	109.035
904.466	113.042
905.248	106.757
906.031	110.184
906.815	111.736
907.596	113.123
908.379	112.19
909.161	113.731
909.944	112.775
910.725	112.986
911.508	114.656
912.289	110.022
913.072	112.221
913.852	112.783
914.635	113.781
915.416	115.054
916.198	115.613
916.979	114.416
917.759	112.439
918.542	113.12
919.322	113.446
920.102	115.632
920.884	113.806
921.665	114.182
922.445	117.656
923.225	116.777
924.005	119.87
924.786	119.497
925.566	117.253
926.346	118.555
927.126	118.089
927.905	123.448
928.685	119.519
929.464	120.648
930.243	125.084
931.023	121.483
931.802	121.717
932.581	118.236
933.36	123.985
934.139	123.901
934.918	118.708
935.697	123.527
936.476	123.883
937.253	120.313
938.032	121.143
938.81	121.55
939.589	124.224
940.367	124.07
941.144	125.701
941.922	126.389
942.7	125.694
943.477	128.982
944.255	126.452
945.033	122.478
945.809	123.981
946.587	121.947
947.365	124.207
948.141	125.187
948.919	124.554
949.23	124.536
950.025	131.345
950.822	130.265
951.617	127.963
952.412	130.883
953.207	130.247
954.001	122.39
954.796	126.643
955.589	125.785
956.383	133.15
957.178	129.403
957.972	131.101
958.767	130.577
959.561	124.941
960.355	129.528
961.15	133.115
961.942	127.812
962.736	128.066
963.53	129.764
964.324	132.128
965.115	131.826
965.909	123.413
966.703	132.111
967.496	128.364
968.288	129.951
969.081	131.982
969.875	134.235
970.666	129.155
971.459	133.964
972.251	134.551
973.044	135.471
973.835	133.058
974.628	133.867
975.419	135.565
976.212	136.929
977.002	140.183
977.795	137.325
978.586	135.911
979.378	136.72
980.169	144.307
980.961	143.894
981.752	139.036
982.542	140.512
983.334	139.099
984.124	142.13
984.914	142.716
985.705	144.748
986.496	138.779
987.286	143.254
988.076	145.952
988.866	135.539
989.658	144.681
990.447	142.824
991.237	149.744
992.026	142.33
992.816	143.028
993.605	138.393
994.394	144.757
995.183	145.677
995.973	147.597
996.764	144.851
997.553	143.437
998.341	142.802
999.13	142.722
999.917	146.531
1000.71	140.451
1001.49	144.038
1002.28	143.847
1003.07	147.322
1003.86	146.354
1004.65	151.274
1005.44	149.527
1006.22	147.558
1007.01	143.478
1007.8	144.62
1008.59	148.318
1009.38	151.349
1010.16	153.381
1010.95	154.634
1011.74	153.665
1012.52	147.585
1013.31	143.95
1014.1	152.759
1014.88	158.568
1015.67	153.043
1016.46	156.852
1017.24	156.439
1018.03	155.915
1018.82	148.724
1019.6	160.421
1020.39	155.008
1021.17	156.484
1021.96	160.737
1022.75	158.657
1023.53	161.799
1024.32	162.275
1025.1	164.64
1025.89	159.226
1026.67	163.48
1027.46	161.844
1028.24	162.32
1029.03	163.795
1029.81	165.604
1030.6	166.858
1031.38	167.778
1032.17	168.365
1032.95	169.951
1033.73	170.316
1034.52	171.014
1035.3	162.712
1036.09	177.076
1036.87	174.885
1037.65	175.472
1038.44	167.392
1039.22	179.756
1040	175.343
1040.79	176.485
1041.57	175.628
1042.35	173.548
1043.14	180.357
1043.92	176.499
1044.7	182.863
1045.49	182.783
1046.27	178.704
1047.05	183.29
1047.83	186.877
1048.61	185.686
1049.4	185.273
1050.18	185.637
1050.96	193.335
1051.74	186.477
1052.52	190.953
1053.31	191.095
1054.09	194.793
