#Acq. time (s)=	3
#Accumulations=	10
#Range (cm-¹)=	100...3500
#Windows=	6
#Autofocus=	Off
#AutoExposure=	Off
#Spike filter=	Multiple accum.
#Delay time (s)=	0
#Binning=	1
#Readout mode=	Signal
#DeNoise=	Off
#ICS correction=	Off
#Dark correction=	Off
#Inst. Process=	Off
#Instrument=	ARAMIS
#Detector=	Andor CCD
#Objective=	x50 SLWD
#Grating=	1800
#Filter=	100%
#Laser (nm)=	532
#Slit=	150
#Hole=	400
#Location=	Micro
#Range=	VIS
#StageXY=	Marzhauser
#StageZ=	Marzhauser
#X (µm)=	-7965.4
#Y (µm)=	-9947.55
#Z (µm)=	519.45
#Project=	
#Sample=	
#Site=	
#Title=	Oxidised MWCNTs 30_1
#Remark=	
#Date=	06.03.2020 12:24
#Acquired=	06.03.2020 12:24:08
100.291	292.778
101.183	304.33
102.074	301.438
102.968	315.88
103.86	318.766
104.751	327.096
105.643	328.76
106.536	318.535
107.427	307.198
108.318	311.973
109.209	311.97
110.102	326.078
110.993	324.742
111.884	328.628
112.775	338.958
113.665	345.51
114.556	340.396
115.446	349.616
116.337	335.501
117.227	337.276
118.119	327.607
119.009	321.826
119.899	331.934
120.789	327.598
121.679	334.817
122.567	315.703
123.456	316.7
124.346	303.141
125.235	313.694
126.125	312.357
127.014	317.799
127.903	320.796
128.793	323.904
129.682	327.456
130.569	321.676
131.457	337.45
132.346	343.336
133.235	333.444
134.122	322.219
135.01	298.661
135.899	294.102
136.787	291.877
137.673	283.652
138.561	290.204
139.45	271.646
140.336	265.309
141.224	272.862
142.109	274.748
142.997	271.411
143.885	277.742
144.77	272.961
145.658	266.847
146.543	270.733
147.431	260.174
148.316	276.06
149.203	267.168
150.088	277.498
150.975	267.162
151.86	274.826
152.745	278.045
153.632	266.598
154.516	265.706
155.401	259.48
156.287	271.144
157.172	266.586
158.056	252.471
158.942	268.691
159.826	261.354
160.71	270.24
161.594	264.793
162.48	266.345
163.364	267.676
164.247	256.228
165.131	266.336
166.015	264.222
166.898	263.33
167.783	264.105
168.667	264.435
169.55	261.321
170.433	255.652
171.316	257.204
172.199	265.09
173.082	251.865
173.964	256.862
174.847	252.97
175.73	257.856
176.612	259.186
177.495	252.516
178.377	253.513
179.257	258.399
180.139	257.174
181.021	248.727
181.903	254.724
182.785	251.721
183.667	252.162
184.549	260.604
185.428	251.934
186.31	246.375
187.191	245.706
188.073	245.369
188.952	253.811
189.833	248.586
190.714	246.36
191.593	245.913
192.474	253.576
193.355	247.351
194.234	249.015
195.115	249.345
195.993	241.231
196.874	245.673
197.752	245.781
198.633	245.444
199.511	245.441
200.391	249.327
201.269	242.435
202.149	244.655
203.027	247.874
203.907	242.871
204.785	244.757
205.665	239.42
206.542	242.751
207.42	247.748
208.299	243.522
209.176	242.742
210.054	245.961
210.933	245.847
211.81	241.288
212.687	243.174
213.564	242.504
214.441	239.39
215.319	241.61
216.196	250.495
217.073	238.048
217.949	242.6
218.826	236.375
219.702	243.261
220.58	240.814
221.456	239.255
222.332	247.03
223.208	242.027
224.084	234.468
224.96	235.91
225.836	232.573
226.711	245.126
227.587	242.456
228.462	242.564
229.338	243.561
230.213	239.558
231.086	236.889
231.962	245.441
232.837	234.216
233.712	239.213
234.586	242.432
235.461	243.763
236.334	240.871
237.209	246.201
238.083	244.531
238.958	247.084
239.83	242.192
240.704	235.411
241.579	242.186
242.453	246.739
243.325	245.624
244.199	245.177
245.071	244.841
245.944	234.615
246.818	247.946
247.69	239.832
248.563	247.718
249.435	232.603
250.308	244.489
251.179	241.486
252.053	239.706
252.924	242.925
253.797	234.588
254.668	240.252
255.541	241.582
256.411	247.913
257.282	244.132
258.155	245.018
259.025	250.682
259.896	245.234
260.768	238.12
261.638	237.895
262.509	248.558
263.381	251.778
264.251	244.664
265.121	239.105
265.991	248.102
266.862	242.766
267.732	243.096
268.602	242.093
269.471	245.757
270.341	242.42
271.21	239.417
272.079	242.414
272.949	247.411
273.818	251.853
274.689	248.627
275.558	249.847
276.427	241.955
277.295	244.396
278.162	250.727
279.031	247.946
279.899	248.054
280.768	252.162
281.636	244.159
282.504	240.045
283.373	245.486
284.241	245.817
285.109	249.369
285.975	253.033
286.843	241.808
287.71	248.582
288.578	247.691
289.446	244.576
290.311	243.573
291.179	238.348
292.046	241.79
292.911	242.009
293.779	245.228
294.646	240.669
295.511	243.444
296.378	249.997
297.243	245.66
298.11	249.324
298.976	234.21
299.841	240.985
300.707	238.871
301.572	238.09
302.438	238.42
303.303	231.973
304.169	244.081
305.033	243.967
305.897	237.408
306.763	243.072
307.627	239.18
308.493	240.066
309.356	240.507
310.22	238.727
311.086	240.946
311.949	244.609
312.813	235.162
313.676	235.826
314.541	236.045
315.404	240.264
316.267	239.706
317.13	237.703
317.993	239.588
318.858	235.252
319.721	237.693
320.583	238.802
321.446	242.132
322.309	240.351
323.171	236.015
324.033	229.012
324.896	233.787
325.758	236.117
326.62	236.003
327.482	225.111
328.344	234.219
329.206	231.883
330.067	233.657
330.929	229.099
331.791	237.207
332.652	235.648
333.514	229.868
334.373	226.865
335.234	227.084
336.095	234.414
336.957	227.078
337.818	229.297
338.676	227.516
339.537	233.291
340.398	234.955
341.257	230.618
342.117	222.171
342.978	225.946
343.836	229.498
344.697	235.717
345.557	235.048
346.415	233.6
347.275	232.82
348.133	224.372
348.993	229.036
349.853	235.922
350.711	230.585
351.571	225.916
352.428	226.246
353.286	227.465
354.146	227.684
355.003	229.681
355.862	238.678
356.719	235.009
357.577	231.117
358.436	234.447
359.293	224.555
360.15	230.219
361.008	225.549
361.865	228.991
362.722	220.099
363.578	230.651
364.437	224.537
365.293	227.312
366.15	225.865
367.006	224.639
367.862	222.081
368.72	230.411
369.576	226.742
370.432	225.961
371.288	226.847
372.144	230.621
373	231.396
373.855	230.504
374.711	229.723
375.566	222.498
376.422	233.94
377.277	232.048
378.132	217.934
378.987	225.042
379.842	216.594
380.697	230.258
381.55	226.922
382.405	228.919
383.26	234.249
384.114	231.69
384.969	225.021
385.823	217.24
386.676	228.348
387.53	223.234
388.384	228.453
389.236	224.117
390.091	229.336
390.945	225.555
391.798	233.552
392.65	229.105
393.504	228.213
394.356	232.543
395.209	226.651
396.063	232.648
396.914	225.423
397.768	223.309
398.619	223.528
399.472	226.97
400.323	231.522
401.176	233.519
402.027	229.627
402.878	226.624
403.731	224.066
404.582	232.618
405.434	221.949
406.285	228.057
407.135	228.943
407.988	229.606
408.838	229.048
409.688	226.934
410.538	228.708
411.391	229.261
412.241	230.48
413.091	235.922
413.94	225.474
414.79	226.582
415.642	222.135
416.491	226.799
417.341	238.684
418.19	227.792
419.04	228.234
419.889	229.009
420.738	232.783
421.587	222.114
422.436	235.555
423.285	228.108
424.134	236.883
424.983	232.435
425.832	226.21
426.68	224.985
427.529	232.759
428.378	223.979
429.226	241.642
430.074	227.195
430.92	224.303
431.769	229.522
432.617	244.964
433.465	231.738
434.311	230.513
435.159	234.399
436.006	223.174
436.854	228.949
437.7	229.168
438.547	237.609
439.395	234.717
440.24	226.492
441.087	239.6
441.935	235.264
442.78	233.483
443.627	231.147
444.472	230.144
445.319	229.585
446.163	237.138
447.01	225.801
447.855	234.021
448.702	226.351
449.546	234.904
450.392	236.456
451.237	231.564
452.081	227.45
452.927	228.447
453.771	228.555
454.615	240.108
455.461	231.66
456.305	236.657
457.149	239.432
457.993	231.54
458.838	224.982
459.682	229.423
460.525	231.531
461.369	234.195
462.212	231.303
463.057	228.744
463.901	228.853
464.744	233.961
465.587	232.18
466.43	221.177
467.273	225.618
468.115	223.504
468.958	231.612
469.801	225.387
470.643	225.717
471.486	230.603
472.328	229.045
473.17	230.375
474.013	222.928
474.855	228.258
475.697	214.588
476.537	222.919
477.379	223.249
478.221	221.468
479.062	223.021
479.904	224.24
480.744	225.681
481.585	221.345
482.427	224.786
483.268	228.672
484.107	230.669
484.948	219.333
485.79	227.997
486.629	223.327
487.47	219.768
488.309	223.765
489.149	213.874
489.99	223.759
490.829	217.534
491.669	225.531
492.508	216.528
493.348	220.859
494.187	214.3
495.027	217.63
495.865	213.961
496.703	217.402
497.543	219.51
498.381	216.285
499.221	222.504
500.059	223.057
500.897	221.054
501.736	219.495
502.574	219.937
503.412	212.934
504.249	215.597
505.088	219.15
505.926	226.369
506.763	218.255
507.6	214.585
508.437	220.249
509.274	215.024
510.113	219.576
510.95	217.129
511.786	222.792
512.623	222.345
513.46	221.231
514.296	211.117
515.133	214.558
515.969	216.444
516.805	216.997
517.641	212.994
518.477	222.213
519.313	223.543
520.149	215.985
520.983	220.982
521.819	225.867
522.655	233.531
523.49	216.417
524.326	226.97
525.161	226.3
525.995	223.519
526.83	222.849
527.666	226.624
528.501	226.843
529.334	231.396
530.169	233.393
531.004	237.501
531.837	230.831
532.672	239.273
533.504	240.825
534.339	233.156
535.173	233.486
536.006	233.705
536.84	242.258
537.673	241.033
538.507	241.474
539.339	243.027
540.173	251.357
541.005	242.576
541.839	243.684
542.671	247.015
543.503	247.789
544.337	249.675
545.168	240.117
546	256.558
546.833	247.888
547.665	251.663
548.496	250.882
549.327	250.213
550.161	255.876
550.992	254.873
551.823	255.093
552.654	250.867
553.485	246.42
554.317	248.306
555.148	248.303
555.979	252.855
556.809	255.63
557.64	255.294
558.47	250.624
559.301	258.066
560.131	250.063
560.961	240.726
561.791	250.723
562.621	245.72
563.451	251.717
564.281	248.714
565.111	250.156
565.941	252.708
566.768	248.039
567.598	254.702
568.428	243.033
569.257	248.696
570.086	252.36
570.914	247.579
571.743	243.576
572.572	250.018
573.401	245.126
574.228	246.012
575.057	244.231
575.886	241.894
576.713	240.003
577.541	238.888
578.37	239.663
579.196	243.438
580.025	238.768
580.851	242.654
581.68	236.54
582.506	238.426
583.334	226.423
584.16	240.864
584.988	239.084
585.814	233.858
586.642	240.3
587.468	238.852
588.293	236.849
589.121	239.402
589.946	235.621
590.772	230.396
591.599	237.726
592.425	236.501
593.25	232.609
594.075	226.162
594.902	232.048
595.727	227.711
596.552	222.375
597.377	229.927
598.202	226.813
599.026	229.255
599.853	227.918
600.678	227.027
601.502	222.357
602.327	224.576
603.151	229.795
603.975	231.126
604.799	226.123
605.624	229.009
606.448	225.006
607.272	224.78
608.096	222.888
608.919	223.33
609.741	222.105
610.565	223.324
611.388	213.432
612.212	217.207
613.035	211.981
613.859	215.201
614.68	220.198
615.503	220.75
616.326	214.303
617.149	210.411
617.97	213.519
618.793	216.627
619.616	209.624
620.437	211.621
621.26	208.618
622.08	206.171
622.903	206.945
623.725	213.609
624.546	203.939
625.368	208.159
626.188	209.156
627.01	210.708
627.831	203.15
628.653	207.036
629.473	197.921
630.292	208.807
631.114	203.804
631.934	206.579
632.756	204.021
633.575	210.351
634.395	204.237
635.216	201.012
636.035	203.675
636.855	194.783
637.674	193.669
638.495	197.777
639.314	209.108
640.133	199.771
640.952	198.768
641.771	196.765
642.59	198.651
643.408	195.426
644.229	192.312
645.047	195.864
645.866	195.084
646.684	198.303
647.503	194.189
648.321	191.519
649.139	189.072
649.957	195.402
650.775	195.066
651.591	186.951
652.409	187.948
653.227	189.834
654.045	189.054
654.862	183.606
655.68	187.603
656.497	190.822
657.313	186.597
658.13	189.261
658.947	187.813
659.765	178.81
660.58	189.03
661.397	183.249
662.214	181.912
663.029	185.465
663.846	185.351
664.662	178.903
665.477	179.9
666.294	183.231
667.108	185.117
667.925	173.891
668.739	178.666
669.555	176.219
670.37	175.66
671.186	174.99
672	174.765
672.816	181.651
673.63	179.648
674.444	177.867
675.26	173.309
676.073	174.306
676.887	169.969
677.703	176.633
678.516	178.186
679.33	174.96
680.145	172.069
680.958	173.066
681.772	167.396
682.585	168.726
683.398	177.168
684.213	170.609
685.026	174.051
685.839	167.381
686.651	162.489
687.464	168.375
688.277	167.261
689.089	165.258
689.902	165.588
690.714	173.807
691.527	165.582
692.339	162.69
693.151	160.687
693.963	162.684
694.775	167.681
695.587	158.9
696.399	162.786
697.209	161.894
698.021	159.891
698.833	160.444
699.644	156.774
700.456	158.771
701.265	158.99
702.077	156.21
702.888	160.762
703.697	156.759
704.508	154.423
705.319	155.753
706.129	158.306
706.939	159.192
707.75	154.189
708.559	158.186
709.37	155.294
710.179	156.957
710.989	153.621
711.798	152.729
712.608	155.726
713.417	149.612
714.227	148.053
715.035	151.495
715.843	155.825
716.654	149.711
717.462	157.264
718.269	149.705
719.079	151.813
719.887	152.81
720.695	147.029
721.505	148.471
722.312	149.468
723.12	153.243
723.927	150.795
724.737	151.014
725.544	148.678
726.351	141.008
727.158	148.005
727.965	147.669
728.772	147.999
729.579	145.108
730.386	147.549
731.193	151.768
732	147.876
732.806	150.096
733.613	153.426
734.419	143.867
735.226	152.642
736.032	150.083
736.839	149.414
737.645	146.411
738.451	146.074
739.257	153.516
740.061	140.624
740.867	149.177
741.673	151.84
742.479	141.059
743.282	150.612
744.088	148.053
744.894	145.495
745.699	148.381
746.503	146.822
747.308	146.708
748.111	148.372
748.917	150.035
749.722	145.588
750.525	143.918
751.33	152.471
752.133	150.69
752.938	149.909
753.74	147.017
754.545	142.57
755.348	148.456
756.152	156.008
756.955	146.116
757.757	144.336
758.562	151.222
759.364	150.219
760.166	149.993
760.97	153.657
761.773	152.987
762.575	149.318
763.378	144.759
764.18	147.978
764.982	149.864
765.784	147.083
766.586	148.192
767.387	144.855
768.191	149.297
768.992	147.96
769.793	152.402
770.595	152.177
771.396	146.729
772.197	144.948
772.998	151.279
773.799	148.387
774.6	145.606
775.401	150.159
776.202	149.822
777.003	148.486
777.803	150.816
778.602	145.369
779.402	150.366
780.203	151.474
781.003	146.582
781.804	151.912
782.604	145.465
783.402	150.906
784.202	149.348
785.002	144.122
785.8	147.897
786.6	151.783
787.4	145.447
788.198	150.11
788.997	152.107
789.797	147.438
790.594	146.546
791.394	147.654
792.191	147.984
792.991	152.426
793.788	145.867
794.587	144.531
795.384	147.972
796.183	148.192
796.98	142.855
797.779	144.963
798.576	153.516
799.373	141.18
800.171	143.843
800.968	141.507
801.765	143.615
802.563	145.612
803.359	143.942
804.156	147.495
804.952	148.492
805.75	144.822
806.546	146.375
807.342	138.372
808.138	141.813
808.934	145.921
809.73	140.14
810.526	150.249
811.322	139.023
812.117	140.798
812.913	137.351
813.708	136.57
814.504	136.678
815.299	138.786
816.095	141.339
816.89	139.002
817.685	141.666
818.48	143.552
819.275	144.549
820.07	141.101
820.865	138.098
821.658	137.207
822.452	135.426
823.247	136.201
824.042	134.197
824.834	139.75
825.629	133.747
826.423	135.633
827.217	133.852
828.01	138.516
828.804	137.846
829.596	135.399
830.39	135.396
831.184	134.17
831.976	131.945
832.77	134.276
833.561	132.939
834.355	130.492
835.147	130.822
835.94	127.041
836.732	135.261
837.523	135.146
838.317	131.588
839.108	128.585
839.899	131.804
840.692	133.579
841.483	133.465
842.274	134.128
843.067	136.014
843.858	131.678
844.649	131.453
845.44	130.116
846.232	132.225
847.023	125.777
847.813	129.107
848.604	135.438
849.394	133.546
850.184	135.098
850.975	127.762
851.765	135.203
852.555	134.534
853.345	132.197
854.135	136.861
854.925	131.747
855.715	132.633
856.504	127.741
857.294	132.405
858.084	132.846
858.873	132.621
859.663	138.173
860.45	134.504
861.24	136.167
862.029	132.387
862.818	129.606
863.607	128.714
864.394	127.044
865.183	129.708
865.972	126.149
866.759	132.751
867.548	132.735
868.337	130.393
869.123	132.862
869.912	124.233
870.698	122.649
871.487	126.766
872.273	128.576
873.062	125.55
873.848	128.715
874.636	126.322
875.422	128.996
876.21	127.337
876.996	125.1
877.784	125.739
878.57	129.124
879.356	129.565
880.143	129.916
880.929	129.411
881.715	125.633
882.5	124.966
883.287	127.589
884.073	125.318
884.858	128.208
885.643	126.345
886.429	127.801
887.216	127.71
888.001	126.282
888.786	124.881
889.57	122.728
890.355	130.963
891.14	126.385
891.925	127.455
892.709	129.238
893.494	128.878
894.278	125.725
895.063	125.666
895.847	126.154
896.631	129.624
897.416	126.451
898.198	126.543
898.982	129.057
899.766	124.48
900.55	130.577
901.334	129.917
902.115	129.217
902.899	130.215
903.683	128.25
904.466	131.319
905.248	129.311
906.031	132.631
906.815	130.727
907.596	129.959
908.379	134.114
909.161	132.059
909.944	130.28
910.725	132.436
911.508	132.783
912.289	134.121
913.072	136.476
913.852	133.357
914.635	132.795
915.416	133.685
916.198	136.04
916.979	137.774
917.759	136.224
918.542	134.862
919.322	134.879
920.102	137.513
920.884	135.953
921.665	139.777
922.445	141.362
923.225	139.05
924.005	139.207
924.786	140.267
925.566	139.706
926.346	141.798
927.126	141.657
927.905	142.017
928.685	140.93
929.464	145.077
930.243	148.903
931.023	148.274
931.802	147.684
932.581	148.787
933.36	145.198
934.139	150.447
934.918	146.263
935.697	150.008
936.476	148.317
937.253	150.549
938.032	154.223
938.81	150.286
939.589	149.19
940.367	155.45
941.144	156.206
941.922	157.149
942.7	154.634
943.477	153.073
944.255	156.504
945.033	155.114
945.809	152.929
946.587	153.28
947.365	154.716
948.141	158.468
948.919	158.059
949.23	156.529
950.025	155.763
950.822	152.885
951.617	154.786
952.412	160.464
953.207	161.031
954.001	154.82
954.796	156.387
955.589	159.399
956.383	155.966
957.178	159.089
957.972	157.433
958.767	156.223
959.561	159.234
960.355	160.246
961.15	153.257
961.942	157.491
962.736	157.391
963.53	158.514
964.324	162.525
965.115	163.093
965.909	158.771
966.703	154.338
967.496	162.794
968.288	168.472
969.081	161.595
969.875	164.717
970.666	170.173
971.459	168.073
972.251	165.307
973.044	165.985
973.835	163.552
974.628	168.453
975.419	173.464
976.212	168.587
977.002	175.154
977.795	173.054
978.586	175.177
979.378	182.411
980.169	178.2
980.961	176.656
981.752	177.223
982.542	172.79
983.334	186.135
984.124	187.369
984.914	182.713
985.705	183.725
986.496	181.07
987.286	183.637
988.076	180.093
988.866	178.327
989.658	181.56
990.447	183.905
991.237	185.472
992.026	182.373
992.816	188.495
993.605	179.396
994.394	185.518
995.183	179.196
995.973	178.541
996.764	183.219
997.553	182.009
998.341	179.242
999.13	183.698
999.917	184.376
1000.71	181.721
1001.49	184.066
1002.28	187.3
1003.07	185.089
1003.86	186.878
1004.65	180.779
1005.44	185.679
1006.22	189.357
1007.01	186.147
1007.8	188.38
1008.59	191.614
1009.38	185.403
1010.16	183.971
1010.95	189.315
1011.74	190.994
1012.52	193.561
1013.31	190.017
1014.1	189.917
1014.88	185.817
1015.67	190.495
1016.46	200.729
1017.24	199.852
1018.03	191.974
1018.82	197.319
1019.6	197.442
1020.39	201.453
1021.17	204.02
1021.96	195.81
1022.75	199.155
1023.53	197.944
1024.32	205.844
1025.1	209.078
1025.89	209.423
1026.67	210.99
1027.46	211.224
1028.24	211.902
1029.03	213.691
1029.81	211.591
1030.6	211.492
1031.38	214.837
1032.17	213.404
1032.95	216.749
1033.73	217.316
1034.52	220.883
1035.3	223.339
1036.09	221.683
1036.87	226.028
1037.65	229.595
1038.44	221.718
1039.22	234.618
1040	227.185
1040.79	223.975
1041.57	230.208
1042.35	234.109
1043.14	242.12
1043.92	243.243
1044.7	236.032
1045.49	238.599
1046.27	243.389
1047.05	238.733
1047.83	238.634
1048.61	250.534
1049.4	239.546
1050.18	249.446
1050.96	247.791
1051.74	254.358
1052.52	248.37
1053.31	252.492
1054.09	261.281
